#Wave		#Intensity
101.402344	39015.222656
102.525391	38522.910156
103.647461	38193.835938
104.768555	37998.351562
105.890625	37299.046875
107.011719	36960.628906
108.132812	36581.941406
109.253906	36368.148438
110.375000	35634.527344
111.495117	35288.832031
112.615234	35197.394531
113.735352	35139.398438
114.855469	34817.960938
115.975586	34616.964844
117.094727	34270.738281
118.213867	33873.000000
119.333008	34071.601562
120.452148	33854.664062
121.570312	33729.273438
122.688477	33606.066406
123.806641	34383.824219
124.924805	33712.828125
126.042969	33690.191406
127.160156	33927.042969
128.277344	33580.000000
129.394531	33465.566406
130.511719	33642.070312
131.627930	33668.640625
132.745117	33652.679688
133.861328	33222.378906
134.977539	33437.042969
136.092773	32959.484375
137.208984	32528.802734
138.324219	32499.148438
139.439453	32245.306641
140.554688	32047.421875
141.668945	31459.246094
142.783203	30974.025391
143.898438	30414.582031
145.011719	29969.361328
146.125977	29335.449219
147.239258	28674.353516
148.353516	28226.298828
149.466797	27513.087891
150.580078	26891.693359
151.692383	26168.968750
152.804688	25207.796875
153.917969	24682.236328
155.030273	23956.425781
156.141602	23529.343750
157.253906	22731.078125
158.365234	22335.082031
159.476562	21929.937500
160.587891	21414.392578
161.698242	21249.699219
162.809570	20961.152344
163.919922	20935.878906
165.030273	20606.630859
166.140625	20461.921875
167.250000	20380.224609
168.360352	20262.451172
169.469727	20004.923828
170.579102	19814.912109
171.687500	19796.142578
172.796875	19678.162109
173.905273	19524.056641
175.013672	19304.482422
176.122070	19265.294922
177.229492	19113.275391
178.337891	19103.371094
179.445312	19091.205078
180.552734	19232.552734
181.660156	19019.439453
182.766602	18957.562500
183.873047	18974.722656
184.980469	19292.376953
186.085938	18810.199219
187.192383	18856.720703
188.297852	19283.041016
189.404297	19230.181641
190.509766	18867.478516
191.614258	18848.447266
192.719727	18917.636719
193.824219	19063.787109
194.929688	19169.253906
196.034180	19365.306641
197.137695	19020.322266
198.242188	19388.517578
199.345703	19285.751953
200.449219	19380.029297
201.552734	19628.414062
202.656250	19731.855469
203.758789	19844.402344
204.861328	20095.283203
205.963867	20350.791016
207.066406	20356.923828
208.168945	20521.843750
209.270508	20634.640625
210.372070	20513.751953
211.473633	20647.015625
212.575195	20823.462891
213.675781	21292.869141
214.776367	21324.162109
215.877930	21271.425781
216.977539	21752.541016
218.078125	21813.474609
219.177734	21974.427734
220.278320	22387.753906
221.377930	22496.583984
222.476562	22789.644531
223.576172	23101.009766
224.674805	23260.080078
225.774414	23846.957031
226.873047	23662.597656
227.970703	24035.814453
229.069336	24570.808594
230.166992	24714.363281
231.264648	25085.710938
232.362305	25423.031250
233.459961	25837.941406
234.556641	26077.544922
235.653320	26567.943359
236.750000	26924.033203
237.846680	27038.574219
238.943359	27406.287109
240.039062	28291.894531
241.134766	28176.345703
242.230469	28809.158203
243.326172	29339.513672
244.420898	29420.396484
245.516602	30021.837891
246.611328	30502.484375
247.706055	30880.535156
248.799805	31368.373047
249.894531	31744.443359
250.988281	32367.455078
252.082031	33082.125000
253.175781	33300.988281
254.269531	33693.710938
255.362305	34267.242188
256.455078	34495.601562
257.547852	35451.558594
258.640625	36124.140625
259.733398	36705.425781
260.825195	36904.652344
261.916992	37999.156250
263.008789	38462.042969
264.100586	39252.628906
265.191406	40020.601562
266.283203	40678.886719
267.374023	41435.960938
268.464844	41608.824219
269.554688	43093.093750
270.645508	43869.390625
271.735352	44499.199219
272.825195	44824.164062
273.915039	45796.234375
275.003906	46252.359375
276.093750	47417.855469
277.182617	47594.394531
278.271484	48083.253906
279.360352	48342.652344
280.448242	48850.207031
281.537109	48475.781250
282.625000	48597.527344
283.712891	48075.824219
284.799805	47406.808594
285.887695	46721.445312
286.974609	45141.320312
288.061523	44448.363281
289.148438	43630.925781
290.235352	41497.125000
291.321289	40271.496094
292.407227	38034.976562
293.493164	36886.503906
294.579102	35067.554688
295.665039	33521.972656
296.750000	32263.732422
297.834961	30627.185547
298.919922	29248.095703
300.004883	27757.861328
301.089844	26430.726562
302.173828	25186.089844
303.257812	24180.808594
304.341797	23161.306641
305.425781	22425.166016
306.508789	21568.765625
307.592773	20855.123047
308.675781	20071.964844
309.758789	19392.396484
310.840820	18770.298828
311.923828	18429.722656
313.005859	17927.322266
314.087891	17429.351562
315.169922	17136.855469
316.251953	16890.470703
317.333008	16630.123047
318.414062	16635.568359
319.495117	16224.757812
320.576172	15839.234375
321.657227	15691.846680
322.737305	15491.183594
323.817383	15371.443359
324.897461	15140.551758
325.977539	15286.941406
327.057617	15120.782227
328.136719	14750.749023
329.215820	14672.449219
330.294922	14564.000000
331.374023	14525.029297
332.452148	14462.865234
333.530273	14375.177734
334.609375	14238.763672
335.686523	14088.383789
336.764648	14216.288086
337.842773	13850.090820
338.919922	13785.405273
339.997070	13769.431641
341.074219	13727.916992
342.150391	13763.002930
343.227539	13640.195312
344.303711	13763.534180
345.379883	13598.865234
346.456055	13705.976562
347.532227	13555.177734
348.607422	13350.861328
349.682617	13344.072266
350.757812	13386.108398
351.833008	13467.695312
352.907227	13356.249023
353.982422	13405.288086
355.056641	13221.652344
356.130859	13310.249023
357.205078	13329.043945
358.278320	13177.883789
359.352539	13019.679688
360.425781	12940.605469
361.499023	13201.617188
362.571289	13334.576172
363.644531	12978.192383
364.716797	13318.606445
365.789062	13069.325195
366.861328	13055.456055
367.933594	13011.263672
369.004883	13062.690430
370.077148	13118.802734
371.148438	13109.596680
372.218750	13093.385742
373.290039	13149.533203
374.361328	13147.331055
375.431641	13005.011719
376.501953	13159.271484
377.572266	13248.175781
378.641602	13166.544922
379.711914	13332.604492
380.781250	13157.458984
381.850586	13216.036133
382.919922	13354.136719
383.988281	13115.748047
385.057617	13267.916016
386.125977	13385.044922
387.194336	13095.044922
388.262695	13474.321289
389.330078	13563.461914
390.398438	13310.792969
391.465820	13472.531250
392.533203	13484.424805
393.599609	13463.524414
394.666992	13566.801758
395.733398	13583.405273
396.800781	13574.229492
397.866211	13635.382812
398.932617	13532.416992
399.999023	13497.425781
401.064453	13750.951172
402.129883	13788.719727
403.195312	13577.754883
404.260742	13603.768555
405.325195	13618.052734
406.390625	13512.594727
407.455078	13855.644531
408.519531	13595.166016
409.583008	13724.572266
410.647461	13764.736328
411.710938	13833.116211
412.774414	13880.366211
413.837891	13810.080078
414.901367	13906.723633
415.963867	13859.934570
417.026367	14017.783203
418.088867	13888.647461
419.151367	13834.767578
420.213867	13891.489258
421.275391	13705.755859
422.337891	13818.983398
423.399414	14031.163086
424.460938	13974.900391
425.521484	13671.246094
426.583008	13539.490234
427.643555	13721.135742
428.704102	13676.555664
429.764648	13830.001953
430.824219	13592.060547
431.884766	13651.204102
432.944336	13627.806641
434.003906	13637.430664
435.063477	13505.465820
436.122070	13500.907227
437.181641	13503.429688
438.240234	13472.894531
439.298828	13399.838867
440.357422	13749.563477
441.415039	13747.406250
442.473633	13305.739258
443.531250	13650.914062
444.588867	13693.647461
445.646484	13606.361328
446.703125	13731.865234
447.760742	13665.838867
448.817383	13666.023438
449.874023	13701.698242
450.930664	13396.613281
451.986328	13605.034180
453.042969	13683.327148
454.098633	13721.397461
455.154297	13629.226562
456.209961	13463.592773
457.264648	13492.164062
458.319336	13508.897461
459.375000	13620.436523
460.429688	13563.714844
461.483398	13582.839844
462.538086	13618.570312
463.591797	13554.699219
464.645508	13315.259766
465.699219	13476.709961
466.752930	13590.757812
467.806641	13486.480469
468.859375	13443.887695
469.912109	13520.000000
470.964844	13323.030273
472.017578	13601.048828
473.069336	13456.285156
474.122070	13484.929688
475.173828	13587.260742
476.225586	13535.118164
477.277344	13513.863281
478.328125	13554.426758
479.379883	13549.815430
480.430664	13530.928711
481.481445	13768.998047
482.531250	13695.410156
483.582031	13802.687500
484.631836	13829.062500
485.681641	13438.759766
486.731445	13827.065430
487.781250	13615.262695
488.831055	13560.618164
489.879883	13610.798828
490.928711	13696.745117
491.977539	13749.351562
493.026367	13635.084961
494.074219	13685.313477
495.123047	13539.984375
496.170898	13621.224609
497.218750	13716.809570
498.266602	13697.882812
499.313477	13423.556641
500.361328	13402.178711
501.408203	13727.012695
502.455078	13631.650391
503.500977	13643.738281
504.547852	13866.066406
505.593750	13617.746094
506.639648	13739.774414
507.685547	13589.342773
508.731445	13651.637695
509.777344	13675.695312
510.822266	13431.889648
511.867188	13546.816406
512.912109	13910.616211
513.957031	13496.808594
515.001953	13645.318359
516.045898	13647.852539
517.089844	13817.993164
518.133789	13810.979492
519.177734	13906.958984
520.220703	13763.402344
521.264648	13706.052734
522.307617	13737.356445
523.350586	13878.935547
524.393555	13831.163086
525.435547	13728.220703
526.478516	13490.929688
527.520508	13476.640625
528.562500	13798.245117
529.604492	13575.230469
530.645508	13767.362305
531.687500	13748.310547
532.728516	14043.789062
533.769531	13835.061523
534.810547	13746.353516
535.850586	13746.500000
536.891602	13845.162109
537.931641	13722.758789
538.971680	13876.737305
540.011719	13912.968750
541.050781	13648.633789
542.090820	13824.329102
543.129883	13887.028320
544.168945	14098.920898
545.208008	13791.107422
546.246094	13906.784180
547.285156	14092.315430
548.323242	14001.024414
549.361328	14152.925781
550.399414	13965.264648
551.437500	13910.034180
552.474609	14090.915039
553.511719	13727.208984
554.548828	13920.173828
555.585938	14156.605469
556.623047	13804.763672
557.659180	13964.083008
558.696289	13964.255859
559.732422	14007.856445
560.768555	13880.141602
561.803711	14128.892578
562.839844	14073.571289
563.875000	14201.726562
564.910156	14052.216797
565.945312	14190.075195
566.980469	14238.599609
568.014648	14238.817383
569.049805	14246.285156
570.083984	14157.069336
571.118164	14273.313477
572.151367	14454.886719
573.185547	14266.500977
574.218750	14293.328125
575.251953	14383.067383
576.285156	14262.317383
577.318359	14269.793945
578.350586	14187.707031
579.383789	14384.021484
580.416016	14125.148438
581.448242	14144.712891
582.480469	14190.931641
583.511719	14065.138672
584.543945	14477.289062
585.575195	14138.203125
586.606445	14201.422852
587.637695	14184.648438
588.667969	14461.312500
589.699219	14243.251953
590.729492	14129.431641
591.759766	14437.782227
592.790039	14576.358398
593.819336	14239.211914
594.849609	14438.497070
595.878906	14616.000977
596.908203	14324.819336
597.937500	14470.787109
598.965820	14359.264648
599.995117	14335.183594
601.023438	14396.162109
602.051758	14420.697266
603.080078	14250.725586
604.108398	14506.272461
605.135742	14445.708008
606.164062	14443.506836
607.191406	14370.740234
608.218750	14589.990234
609.245117	14624.325195
610.272461	14872.915039
611.298828	14943.838867
612.325195	15114.643555
613.351562	14920.119141
614.377930	15110.471680
615.403320	15096.200195
616.429688	15125.792969
617.455078	15211.463867
618.480469	14880.236328
619.505859	15009.787109
620.530273	14775.962891
621.555664	14825.036133
622.580078	14471.530273
623.604492	14576.695312
624.628906	14764.887695
625.652344	14491.737305
626.676758	14640.913086
627.700195	14856.083984
628.723633	14763.555664
629.747070	14788.262695
630.769531	14749.444336
631.792969	14568.858398
632.815430	14573.985352
633.837891	14757.592773
634.860352	14669.831055
635.882812	14912.222656
636.904297	15015.264648
637.925781	14929.945312
638.948242	15182.305664
639.968750	15089.641602
640.990234	14850.058594
642.011719	15004.599609
643.032227	14782.053711
644.052734	15046.862305
645.073242	14865.889648
646.093750	14942.133789
647.113281	15094.379883
648.133789	14827.519531
649.153320	15168.579102
650.172852	15075.735352
651.192383	15009.834961
652.210938	15127.886719
653.230469	14927.028320
654.249023	14863.515625
655.267578	15089.597656
656.286133	14787.970703
657.303711	14793.143555
658.322266	14869.535156
659.339844	14803.493164
660.357422	14887.283203
661.375000	14833.504883
662.392578	14816.569336
663.409180	14657.063477
664.426758	14726.133789
665.443359	14721.461914
666.459961	15041.422852
667.475586	14960.551758
668.492188	14943.617188
669.507812	14889.764648
670.523438	14813.741211
671.539062	14745.074219
672.554688	15040.766602
673.570312	15001.665039
674.584961	14873.880859
675.599609	15017.026367
676.614258	15046.884766
677.628906	15101.396484
678.643555	15015.435547
679.657227	15032.982422
680.671875	14979.029297
681.685547	14821.478516
682.698242	14915.460938
683.711914	14846.653320
684.725586	14896.258789
685.738281	15017.452148
686.750977	14864.696289
687.763672	14645.225586
688.776367	14959.043945
689.788086	14793.842773
690.800781	15008.993164
691.812500	14861.034180
692.824219	14821.749023
693.835938	14878.839844
694.846680	14730.773438
695.857422	14993.083008
696.869141	14936.480469
697.879883	14998.578125
698.890625	14959.271484
699.900391	15085.726562
700.911133	15266.670898
701.920898	15155.609375
702.930664	15289.593750
703.940430	15198.302734
704.950195	15448.741211
705.958984	15293.041992
706.967773	14998.546875
707.977539	15273.864258
708.985352	15189.917969
709.994141	15039.011719
711.002930	15170.686523
712.010742	15153.625977
713.018555	14851.336914
714.026367	14863.977539
715.034180	15008.120117
716.041992	14938.901367
717.048828	14559.407227
718.055664	14773.079102
719.062500	14743.503906
720.069336	14753.651367
721.076172	14964.991211
722.082031	14781.408203
723.088867	14967.980469
724.094727	14978.173828
725.100586	15082.823242
726.106445	14894.153320
727.111328	15036.122070
728.116211	15314.927734
729.122070	15469.462891
730.126953	15775.814453
731.130859	15559.722656
732.135742	15475.458008
733.139648	15406.097656
734.144531	15030.474609
735.148438	14921.163086
736.151367	14774.451172
737.155273	14968.964844
738.159180	14799.782227
739.162109	14797.501953
740.165039	14892.425781
741.167969	14715.656250
742.170898	14665.983398
743.172852	14845.722656
744.175781	14589.029297
745.177734	15325.144531
746.179688	14903.760742
747.180664	15033.759766
748.182617	14811.855469
749.183594	15228.987305
750.185547	15024.514648
751.186523	14972.312500
752.187500	14927.584961
753.187500	14970.283203
754.188477	15067.969727
755.188477	15048.225586
756.188477	15003.476562
757.188477	14961.209961
758.188477	14958.937500
759.187500	15121.737305
760.187500	14741.754883
761.186523	14829.512695
762.185547	15074.958008
763.184570	14962.572266
764.182617	15030.388672
765.181641	14810.286133
766.179688	14903.141602
767.177734	15148.820312
768.175781	14923.606445
769.172852	14783.502930
770.170898	14921.528320
771.167969	14954.327148
772.165039	15207.756836
773.162109	15205.513672
774.159180	14982.567383
775.156250	15037.973633
776.152344	15196.263672
777.148438	15068.546875
778.144531	15241.957031
779.140625	15176.956055
780.136719	15285.169922
781.131836	15066.971680
782.126953	15084.785156
783.122070	15351.299805
784.117188	15168.166992
785.112305	15399.610352
786.107422	14892.183594
787.101562	15090.979492
788.095703	15028.352539
789.089844	15275.025391
790.083984	15217.438477
791.077148	15190.019531
792.071289	15074.522461
793.064453	15364.163086
794.057617	15510.433594
795.050781	15412.552734
796.043945	15344.851562
797.036133	15360.235352
798.028320	15289.979492
799.020508	15232.294922
800.012695	15368.617188
801.004883	15583.119141
801.997070	15487.641602
802.988281	15515.669922
803.979492	15425.188477
804.970703	15546.533203
805.961914	15299.621094
806.953125	15431.079102
807.943359	15491.924805
808.933594	15398.828125
809.924805	15762.622070
810.914062	15667.014648
811.904297	15518.339844
812.894531	15788.896484
813.883789	15766.501953
814.873047	15787.052734
815.862305	15815.192383
816.851562	15696.737305
817.840820	15927.119141
818.829102	15702.439453
819.817383	15768.516602
820.805664	15877.618164
821.793945	15888.090820
822.782227	15845.427734
823.769531	15931.823242
824.757812	15800.554688
825.745117	15846.462891
826.732422	15775.904297
827.719727	15918.066406
828.706055	16237.600586
829.693359	15766.758789
830.679688	15954.607422
831.666016	15754.738281
832.652344	15585.216797
833.637695	15884.693359
834.624023	15798.817383
835.609375	15730.664062
836.594727	15855.285156
837.580078	15723.683594
838.565430	15835.658203
839.550781	15818.223633
840.535156	15790.627930
841.519531	15821.420898
842.503906	15641.437500
843.488281	15776.356445
844.472656	15550.568359
845.456055	15975.191406
846.440430	16008.583984
847.423828	15803.047852
848.407227	15584.725586
849.389648	15943.544922
850.373047	16037.992188
851.355469	15908.623047
852.338867	15741.041992
853.321289	15693.000000
854.302734	15764.561523
855.285156	15887.059570
856.267578	15892.482422
857.249023	15895.360352
858.230469	16071.432617
859.211914	15824.693359
860.193359	16123.115234
861.173828	15929.810547
862.155273	16111.111328
863.135742	16167.562500
864.116211	16058.299805
865.096680	16081.607422
866.076172	15905.970703
867.056641	15745.577148
868.036133	15978.069336
869.015625	15771.691406
869.995117	15680.101562
870.974609	15297.438477
871.953125	15481.500000
872.932617	15509.838867
873.911133	15584.166016
874.889648	15579.320312
875.868164	15536.142578
876.846680	15449.500000
877.824219	15603.110352
878.801758	15380.944336
879.779297	15583.180664
880.756836	15414.638672
881.734375	15276.731445
882.711914	15404.860352
883.688477	15369.259766
884.665039	15287.575195
885.641602	15479.771484
886.618164	15357.110352
887.594727	15475.122070
888.570312	15572.685547
889.546875	15367.997070
890.522461	15478.385742
891.498047	15160.845703
892.473633	15235.352539
893.448242	15543.173828
894.423828	15389.572266
895.398438	15402.608398
896.373047	15333.570312
897.347656	15356.862305
898.321289	15423.782227
899.295898	15285.415039
900.269531	15485.822266
901.243164	15275.530273
902.216797	15689.131836
903.190430	15527.594727
904.164062	15270.958008
905.136719	15376.480469
906.110352	15625.939453
907.083008	15569.646484
908.054688	15456.779297
909.027344	15474.994141
910.000000	15392.925781
910.971680	15555.163086
911.943359	15339.313477
912.915039	15354.944336
913.886719	15277.939453
914.858398	15553.517578
915.829102	15404.439453
916.799805	15592.597656
917.771484	15389.392578
918.741211	15631.703125
919.711914	15716.957031
920.682617	15706.906250
921.652344	15738.084961
922.622070	15782.161133
923.591797	15643.215820
924.561523	15702.759766
925.531250	15997.006836
926.500000	15556.235352
927.469727	15984.711914
928.438477	15721.819336
929.407227	15817.558594
930.375000	15864.288086
931.343750	15998.812500
932.312500	16089.486328
933.280273	16045.896484
934.248047	15736.230469
935.215820	16036.172852
936.182617	16349.143555
937.150391	16403.775391
938.117188	16099.119141
939.083984	16120.114258
940.050781	16301.441406
941.017578	16004.358398
941.984375	16237.464844
942.950195	15839.357422
943.916992	16308.001953
944.882812	16341.995117
945.848633	16197.379883
946.813477	16169.223633
947.779297	16340.456055
948.744141	16120.648438
949.709961	16224.579102
950.674805	16180.858398
951.638672	16126.754883
952.603516	16285.171875
953.568359	16065.152344
954.532227	16361.035156
955.496094	16169.475586
956.459961	16270.946289
957.423828	16341.322266
958.386719	16224.901367
959.350586	16347.196289
960.313477	16189.202148
961.276367	16259.610352
962.239258	16197.617188
963.202148	16319.992188
964.164062	16434.617188
965.126953	16276.494141
966.088867	16276.819336
967.050781	16141.999023
968.012695	16186.488281
968.973633	16412.984375
969.935547	16111.691406
970.896484	16356.458984
971.857422	16361.997070
972.818359	16263.466797
973.779297	16487.574219
974.740234	16454.095703
975.700195	16386.763672
976.660156	16431.363281
977.620117	16535.871094
978.580078	16705.529297
979.540039	16312.565430
980.500000	16495.269531
981.458984	16597.255859
982.417969	16514.220703
983.376953	16749.195312
984.335938	16366.312500
985.294922	16515.285156
986.252930	16687.785156
987.211914	16469.035156
988.169922	16471.988281
989.127930	16294.873047
990.084961	16650.166016
991.042969	16556.558594
992.000000	16757.968750
992.958008	16559.882812
993.915039	16672.556641
994.872070	16440.419922
995.828125	16597.531250
996.785156	16556.076172
997.741211	16606.093750
998.698242	16823.447266
999.654297	16944.128906
1000.609375	16923.626953
1001.565430	16913.580078
1002.521484	16566.033203
1003.476562	16514.048828
1004.431641	16789.193359
1005.386719	16590.642578
1006.341797	16645.974609
1007.296875	16463.037109
1008.250977	16683.365234
1009.205078	16479.410156
1010.159180	16427.339844
1011.113281	16427.660156
1012.067383	16273.345703
1013.021484	16365.385742
1013.974609	16381.423828
1014.927734	16350.265625
1015.880859	16072.550781
1016.833984	16062.310547
1017.787109	16324.935547
1018.739258	16141.537109
1019.692383	16204.791992
1020.644531	16084.308594
1021.596680	16444.269531
1022.548828	16271.263672
1023.500000	16276.799805
1024.452148	16161.494141
1025.403320	16298.386719
1026.354492	16217.206055
1027.305664	16114.967773
1028.256836	15744.543945
1029.208008	16199.612305
1030.158203	16163.060547
1031.108398	16171.209961
1032.059570	15874.189453
1033.008789	16058.583984
1033.958984	15829.861328
1034.909180	15906.391602
1035.858398	15814.458008
1036.807617	16025.301758
1037.756836	15957.056641
1038.706055	15680.694336
1039.655273	15657.150391
1040.604492	15915.543945
1041.552734	15678.556641
1042.500977	15633.909180
1043.449219	15734.249023
1044.397461	15868.904297
1045.345703	15692.395508
1046.292969	15908.863281
1047.240234	15668.978516
1048.188477	15576.779297
1049.134766	15716.800781
1050.082031	15835.754883
1051.029297	15748.813477
1051.975586	15659.201172
1052.922852	15865.363281
1053.869141	15693.847656
1054.815430	15786.478516
1055.760742	15778.725586
1056.707031	15630.887695
1057.652344	15638.962891
1058.598633	15528.061523
1059.543945	15834.942383
1060.489258	15673.781250
1061.433594	15602.505859
1062.378906	15769.331055
1063.323242	15711.277344
1064.267578	15854.359375
1065.212891	15756.589844
1066.156250	15889.138672
1067.100586	15960.824219
1068.044922	16027.238281
1068.988281	15979.760742
1069.931641	15767.988281
1070.875000	15791.999023
1071.818359	15863.727539
1072.761719	16081.290039
1073.704102	16004.609375
1074.646484	16087.020508
1075.588867	16310.041992
1076.531250	15798.276367
1077.473633	16047.857422
1078.416016	16000.291992
1079.357422	15947.400391
1080.299805	15655.553711
1081.241211	15756.587891
1082.182617	15847.034180
1083.123047	15679.855469
1084.064453	15802.199219
1085.004883	15759.839844
1085.946289	15632.419922
1086.886719	15600.646484
1087.827148	15603.422852
1088.766602	15436.018555
1089.707031	15489.296875
1090.646484	15715.496094
1091.586914	15643.797852
1092.526367	15468.295898
1093.465820	15638.719727
1094.404297	15686.753906
1095.343750	15745.455078
1096.282227	15713.637695
1097.220703	15585.928711
1098.159180	15508.786133
1099.097656	15511.543945
1100.036133	15679.517578
1100.973633	15788.916016
1101.912109	15581.130859
1102.849609	15687.882812
1103.787109	15453.337891
1104.724609	15429.413086
1105.661133	15824.295898
1106.598633	15493.596680
1107.535156	15600.423828
1108.471680	15691.274414
1109.408203	15736.775391
1110.344727	15838.360352
1111.281250	15469.980469
1112.216797	15787.899414
1113.153320	15646.448242
1114.088867	15705.336914
1115.024414	15823.038086
1115.958984	16015.619141
1116.894531	15668.259766
1117.829102	15628.261719
1118.764648	15724.635742
1119.699219	15738.126953
1120.633789	15609.835938
1121.568359	15896.229492
1122.501953	15727.777344
1123.436523	15741.275391
1124.370117	15944.852539
1125.303711	15682.601562
1126.237305	15819.288086
1127.170898	15913.165039
1128.103516	15937.420898
1129.037109	15768.761719
1129.969727	15728.679688
1130.902344	15932.502930
1131.834961	15884.391602
1132.766602	16128.534180
1133.699219	15986.574219
1134.630859	16118.162109
1135.563477	16204.187500
1136.495117	16086.312500
1137.426758	15979.130859
1138.357422	16271.862305
1139.289062	16221.052734
1140.219727	16503.187500
1141.150391	16210.690430
1142.081055	16149.096680
1143.011719	16546.892578
1143.942383	16794.349609
1144.873047	16617.259766
1145.802734	16300.326172
1146.732422	16561.312500
1147.662109	16518.533203
1148.591797	16602.144531
1149.521484	16572.806641
1150.450195	16651.074219
1151.379883	17011.914062
1152.308594	16985.322266
1153.237305	16872.580078
1154.166016	16660.181641
1155.093750	17075.132812
1156.022461	17080.849609
1156.950195	17089.259766
1157.877930	17033.013672
1158.805664	17146.511719
1159.733398	17144.156250
1160.661133	17252.322266
1161.587891	17516.902344
1162.515625	17137.082031
1163.442383	17434.099609
1164.369141	17442.580078
1165.295898	17469.949219
1166.221680	17505.421875
1167.148438	17578.693359
1168.074219	17660.087891
1169.000000	17860.310547
1169.925781	17817.562500
1170.851562	17882.833984
1171.777344	17850.878906
1172.702148	17848.632812
1173.627930	17873.406250
1174.552734	17644.123047
1175.477539	17758.078125
1176.402344	17580.064453
1177.326172	17445.253906
1178.250977	17491.613281
1179.174805	17537.990234
1180.098633	17335.455078
1181.022461	17265.453125
1181.946289	17363.236328
1182.870117	17477.298828
1183.792969	17280.021484
1184.715820	17277.660156
1185.639648	17256.333984
1186.561523	17083.294922
1187.484375	17257.013672
1188.407227	17140.820312
1189.329102	17515.185547
1190.251953	17255.314453
1191.173828	17328.859375
1192.095703	17161.068359
1193.017578	17128.837891
1193.938477	17180.693359
1194.860352	17050.771484
1195.781250	16988.650391
1196.702148	17032.363281
1197.623047	16994.648438
1198.543945	17062.814453
1199.464844	16889.300781
1200.384766	16742.888672
1201.304688	17101.732422
1202.225586	16770.535156
1203.145508	16890.353516
1204.064453	16689.472656
1204.984375	16852.816406
1205.904297	16551.248047
1206.823242	16676.548828
1207.742188	16603.328125
1208.661133	16407.656250
1209.580078	16410.550781
1210.498047	16636.607422
1211.416992	16383.673828
1212.334961	16441.011719
1213.252930	16495.646484
1214.170898	16615.662109
1215.088867	16425.193359
1216.006836	16531.615234
1216.923828	16681.671875
1217.841797	16303.063477
1218.758789	16237.791016
1219.675781	16376.967773
1220.592773	16442.570312
1221.508789	16410.011719
1222.425781	16494.736328
1223.341797	16445.804688
1224.257812	16451.431641
1225.173828	15987.635742
1226.089844	16244.312500
1227.005859	16056.061523
1227.920898	16326.492188
1228.836914	16241.971680
1229.751953	16231.172852
1230.666992	16097.426758
1231.582031	16037.412109
1232.497070	16040.235352
1233.411133	16248.073242
1234.325195	16092.361328
1235.240234	16002.220703
1236.154297	15851.878906
1237.067383	15903.906250
1237.981445	15824.626953
1238.895508	16101.052734
1239.808594	15953.357422
1240.721680	15928.790039
1241.634766	15904.213867
1242.547852	16101.433594
1243.460938	16079.616211
1244.373047	15940.000977
1245.286133	15994.860352
1246.198242	15934.646484
1247.110352	15849.745117
1248.022461	16241.787109
1248.934570	15871.769531
1249.845703	15860.848633
1250.757812	15885.579102
1251.668945	16110.567383
1252.580078	15899.395508
1253.491211	16020.186523
1254.402344	15998.300781
1255.312500	15754.054688
1256.223633	15710.148438
1257.133789	16152.277344
1258.043945	15828.278320
1258.954102	15844.793945
1259.864258	16072.872070
1260.773438	15930.052734
1261.683594	15949.341797
1262.592773	16092.339844
1263.501953	16075.919922
1264.411133	15817.500977
1265.320312	15817.528320
1266.228516	16307.211914
1267.137695	16216.528320
1268.045898	16167.090820
1268.954102	15982.770508
1269.862305	16252.599609
1270.770508	16183.866211
1271.678711	16062.787109
1272.585938	16156.497070
1273.493164	16186.879883
1274.400391	16269.622070
1275.307617	16068.553711
1276.214844	16170.596680
1277.122070	16314.024414
1278.028320	16327.915039
1278.935547	16198.412109
1279.841797	15980.603516
1280.748047	16372.371094
1281.654297	16284.192383
1282.559570	16055.243164
1283.465820	16113.259766
1284.371094	15958.734375
1285.276367	16185.175781
1286.181641	16000.230469
1287.086914	16268.188477
1287.992188	16182.640625
1288.897461	15898.127930
1289.801758	16039.087891
1290.706055	16033.606445
1291.610352	16166.344727
1292.514648	16113.879883
1293.418945	15715.721680
1294.322266	15790.387695
1295.226562	16114.052734
1296.129883	16028.336914
1297.033203	16020.075195
1297.936523	15867.883789
1298.839844	16136.419922
1299.742188	16061.720703
1300.645508	15945.455078
1301.547852	16128.281250
1302.450195	16086.781250
1303.352539	16045.266602
1304.254883	16020.364258
1305.157227	15826.377930
1306.058594	15931.719727
1306.959961	15843.010742
1307.861328	15818.051758
1308.762695	15917.898438
1309.664062	15990.037109
1310.565430	16170.410156
1311.465820	15909.606445
1312.367188	15795.815430
1313.267578	15892.965820
1314.167969	15920.735352
1315.068359	16292.866211
1315.967773	16167.950195
1316.868164	16051.324219
1317.767578	16231.955078
1318.667969	16465.449219
1319.567383	16268.207031
1320.465820	16504.568359
1321.365234	16193.264648
1322.264648	16560.396484
1323.163086	16396.408203
1324.061523	16418.748047
1324.959961	16516.218750
1325.858398	16132.287109
1326.756836	16235.307617
1327.655273	16129.575195
1328.552734	16007.099609
1329.450195	16285.592773
1330.348633	16004.337891
1331.245117	15948.632812
1332.142578	15856.686523
1333.040039	15904.044922
1333.936523	15784.183594
1334.833984	15636.403320
1335.730469	15951.415039
1336.626953	16001.609375
1337.523438	15920.728516
1338.418945	15786.814453
1339.315430	15859.325195
1340.210938	15691.864258
1341.106445	15753.217773
1342.001953	15730.843750
1342.897461	15719.628906
1343.792969	15733.543945
1344.687500	15417.876953
1345.583008	15688.751953
1346.477539	15322.672852
1347.372070	15439.923828
1348.266602	15283.300781
1349.161133	15487.245117
1350.054688	15501.131836
1350.949219	15498.243164
1351.842773	15456.195312
1352.736328	15212.712891
1353.629883	15428.011719
1354.523438	15601.409180
1355.416992	15343.828125
1356.309570	15388.495117
1357.202148	15410.778320
1358.094727	15223.037109
1358.987305	15287.311523
1359.879883	15021.043945
1360.772461	15315.057617
1361.665039	15197.225586
1362.556641	15306.382812
1363.448242	15376.331055
1364.339844	15412.657227
1365.231445	15134.911133
1366.123047	14949.625977
1367.013672	15339.362305
1367.905273	15128.794922
1368.795898	15193.168945
1369.686523	15072.318359
1370.577148	15139.510742
1371.467773	14984.915039
1372.357422	15200.950195
1373.248047	14998.561523
1374.137695	15068.594727
1375.027344	15034.692383
1375.916992	15056.981445
1376.806641	14958.418945
1377.696289	15031.302734
1378.584961	15211.053711
1379.473633	15151.834961
1380.363281	15022.278320
1381.251953	15123.352539
1382.139648	15131.612305
1383.028320	14866.905273
1383.916992	15094.660156
1384.804688	14748.216797
1385.692383	15277.294922
1386.580078	15187.023438
1387.467773	14837.596680
1388.355469	15045.821289
1389.243164	15116.059570
1390.129883	15079.236328
1391.016602	15039.582031
1391.904297	14971.722656
1392.790039	15253.456055
1393.676758	15098.189453
1394.563477	15117.737305
1395.449219	15128.829102
1396.335938	15258.424805
1397.221680	15170.775391
1398.107422	15060.514648
1398.993164	15105.476562
1399.878906	15054.458008
1400.763672	14924.350586
1401.648438	15104.880859
1402.534180	15135.754883
1403.418945	15110.130859
1404.303711	14897.990234
1405.187500	15248.221680
1406.072266	14928.609375
1406.956055	15123.461914
1407.840820	14950.763672
1408.724609	15018.412109
1409.608398	15329.361328
1410.492188	14907.627930
1411.375000	15213.004883
1412.258789	15195.834961
1413.141602	15201.303711
1414.024414	15246.412109
1414.907227	15243.395508
1415.790039	15172.403320
1416.672852	14911.591797
1417.555664	15101.173828
1418.437500	15319.158203
1419.319336	15182.940430
1420.201172	15239.434570
1421.083008	14969.899414
1421.964844	15134.131836
1422.846680	15006.292969
1423.727539	15176.260742
1424.608398	14937.733398
1425.490234	15155.988281
1426.371094	14914.535156
1427.250977	15161.246094
1428.131836	14828.856445
1429.012695	14794.512695
1429.892578	15322.502930
1430.772461	15055.300781
1431.652344	15023.817383
1432.532227	14989.481445
1433.412109	15222.290039
1434.291016	14988.994141
1435.170898	15105.315430
1436.049805	15031.157227
1436.928711	15104.864258
1437.807617	14936.808594
1438.686523	15223.902344
1439.565430	15240.768555
1440.443359	15021.417969
1441.321289	14975.629883
1442.200195	14932.671875
1443.078125	15060.549805
1443.956055	15148.598633
1444.833008	15139.829102
1445.710938	14968.662109
1446.587891	14905.715820
1447.464844	15133.446289
1448.342773	14925.131836
1449.219727	15044.606445
1450.095703	15064.319336
1450.972656	15027.000000
1451.848633	15032.454102
1452.725586	14946.615234
1453.601562	15134.676758
1454.477539	15279.993164
1455.353516	15099.954102
1456.228516	15151.100586
1457.104492	14945.277344
1457.979492	15204.895508
1458.855469	15173.250000
1459.730469	14927.324219
1460.605469	15204.216797
1461.479492	14832.463867
1462.354492	14992.240234
1463.228516	15303.592773
1464.103516	15191.865234
1464.977539	15180.193359
1465.851562	15179.958008
1466.725586	15033.818359
1467.598633	14999.219727
1468.472656	15176.386719
1469.345703	15081.690430
1470.218750	15224.577148
1471.092773	15187.122070
1471.964844	15264.207031
1472.837891	15106.443359
1473.710938	15438.507812
1474.583008	15295.044922
1475.456055	15286.225586
1476.328125	15480.909180
1477.200195	15477.850586
1478.071289	15182.326172
1478.943359	15311.131836
1479.815430	15437.113281
1480.686523	15250.439453
1481.557617	15646.165039
1482.428711	15330.322266
1483.299805	15350.192383
1484.170898	15688.721680
1485.041992	15654.104492
1485.912109	15303.582031
1486.782227	15372.286133
1487.652344	15486.977539
1488.522461	15368.974609
1489.392578	15679.118164
1490.262695	15543.861328
1491.131836	15506.297852
1492.001953	15951.758789
1492.871094	15689.945312
1493.740234	15807.702148
1494.609375	15701.114258
1495.478516	15715.332031
1496.346680	15648.978516
1497.215820	15709.242188
1498.083984	15536.351562
1498.952148	15613.890625
1499.820312	15383.329102
1500.688477	15457.987305
1501.556641	15463.533203
1502.423828	15267.398438
1503.291992	15166.291016
1504.159180	15128.555664
1505.026367	15131.164062
1505.893555	15200.084961
1506.759766	15035.453125
1507.626953	15115.916992
1508.494141	15138.715820
1509.360352	14910.511719
1510.226562	14849.597656
1511.092773	15169.633789
1511.958984	15224.207031
1512.825195	14894.808594
1513.690430	14992.666992
1514.555664	15145.433594
1515.421875	15119.157227
1516.287109	15214.213867
1517.152344	15190.828125
1518.016602	15184.774414
1518.881836	15300.124023
1519.747070	15080.142578
1520.611328	15296.719727
1521.475586	15377.441406
1522.339844	15307.773438
1523.204102	15336.447266
1524.068359	15318.832031
1524.931641	15217.281250
1525.795898	15306.739258
1526.659180	15179.093750
1527.522461	15364.129883
1528.385742	15305.956055
1529.249023	15311.486328
1530.111328	15177.957031
1530.974609	15131.309570
1531.836914	15226.653320
1532.699219	15214.779297
1533.561523	15246.388672
1534.423828	15541.871094
1535.286133	15509.743164
1536.147461	15318.070312
1537.009766	15297.496094
1537.871094	15549.665039
1538.732422	15285.345703
1539.593750	15383.759766
1540.455078	15186.091797
1541.316406	15333.882812
1542.176758	15391.696289
1543.038086	15356.583008
1543.898438	15036.757812
1544.758789	14969.608398
1545.619141	15169.794922
1546.479492	15207.281250
1547.338867	15262.222656
1548.199219	15401.501953
1549.058594	15601.898438
1549.917969	15336.989258
1550.777344	15319.260742
1551.636719	15415.000000
1552.496094	15094.627930
1553.354492	15266.035156
1554.213867	15417.123047
1555.072266	15533.322266
1555.930664	15273.902344
1556.789062	15352.252930
1557.647461	15372.367188
1558.504883	15252.636719
1559.363281	15555.406250
1560.220703	15321.995117
1561.078125	15694.841797
1561.935547	15752.932617
1562.792969	15545.677734
1563.650391	15793.339844
1564.507812	16166.521484
1565.364258	16067.179688
1566.220703	16166.234375
1567.077148	15897.579102
1567.933594	15836.086914
1568.790039	16110.326172
1569.646484	15961.245117
1570.501953	16031.157227
1571.358398	15990.090820
1572.213867	15972.382812
1573.069336	15846.549805
1573.924805	15875.570312
1574.780273	15708.752930
1575.634766	15568.190430
1576.490234	15415.882812
1577.344727	15576.454102
1578.199219	15488.446289
1579.053711	14984.971680
1579.908203	15224.555664
1580.762695	15238.871094
1581.617188	15341.005859
1582.470703	15112.353516
1583.324219	15170.577148
1584.178711	14947.673828
1585.032227	15011.746094
1585.884766	15175.448242
1586.738281	15189.768555
1587.591797	14972.574219
1588.444336	15042.554688
1589.296875	14922.002930
1590.149414	14862.984375
1591.001953	15044.420898
1591.854492	15120.326172
1592.707031	14996.768555
1593.558594	14969.996094
1594.410156	15201.461914
1595.262695	14945.771484
1596.114258	15039.334961
1596.965820	15291.483398
1597.816406	15038.612305
1598.667969	15173.358398
1599.518555	14967.381836
1600.370117	15152.109375
1601.220703	15192.905273
1602.071289	14842.804688
1602.921875	15036.423828
1603.771484	14924.330078
1604.622070	14844.543945
1605.471680	14752.965820
1606.321289	14864.332031
1607.171875	14952.199219
1608.021484	14789.965820
1608.870117	14810.154297
1609.719727	14588.966797
1610.569336	14668.010742
1611.417969	14526.228516
1612.266602	14337.274414
1613.115234	14604.839844
1613.963867	14318.607422
1614.812500	14238.547852
1615.660156	14526.862305
1616.508789	14340.691406
1617.356445	14525.932617
1618.204102	14348.542969
1619.051758	14118.004883
1619.899414	14185.312500
1620.747070	14149.382812
1621.594727	14219.667969
1622.441406	14021.412109
1623.288086	13843.750977
1624.134766	14401.141602
1624.981445	14167.379883
1625.828125	13977.837891
1626.674805	13711.431641
1627.520508	13734.453125
1628.367188	13914.085938
1629.212891	13712.546875
1630.058594	13667.595703
1630.904297	13817.745117
1631.750000	13793.493164
1632.595703	13600.665039
1633.440430	13821.865234
1634.285156	13599.392578
1635.130859	13421.225586
1635.975586	13752.001953
1636.820312	13712.912109
1637.664062	13673.807617
1638.508789	13525.137695
1639.352539	13521.523438
1640.197266	13562.333984
1641.041016	13398.755859
1641.884766	13439.559570
1642.728516	13607.800781
1643.572266	13512.314453
1644.415039	13333.791992
1645.258789	13356.820312
1646.101562	13640.810547
1646.944336	13438.490234
1647.787109	13307.293945
1648.629883	13362.966797
1649.472656	13578.899414
1650.314453	13394.235352
1651.157227	13319.339844
1651.999023	13398.802734
1652.840820	13160.562500
1653.682617	13183.594727
1654.524414	13459.124023
1655.365234	13292.073242
1656.207031	13166.565430
1657.047852	13240.135742
1657.889648	13185.915039
1658.730469	13087.080078
1659.571289	13199.329102
1660.411133	13109.383789
1661.251953	12980.739258
1662.092773	12688.423828
1662.932617	13065.500977
1663.772461	12764.170898
1664.612305	12855.641602
1665.452148	13313.317383
1666.291992	12952.324219
1667.130859	12960.485352
1667.970703	12831.635742
1668.809570	13149.601562
1669.648438	12821.107422
1670.488281	12936.533203
1671.326172	12855.278320
1672.165039	12708.412109
1673.003906	12928.231445
1673.841797	12554.685547
1674.680664	12762.623047
1675.518555	13018.360352
1676.356445	12814.705078
1677.194336	12607.995117
1678.031250	12774.295898
1678.869141	12486.909180
1679.706055	12411.406250
1680.543945	12667.341797
1681.380859	12645.602539
1682.217773	12653.728516
1683.054688	12584.175781
1683.890625	12607.232422
1684.727539	12776.744141
1685.563477	12381.350586
1686.399414	12793.048828
1687.236328	12472.278320
1688.072266	12330.842773
1688.907227	12440.624023
1689.743164	12197.414062
1690.579102	12247.363281
1691.414062	12246.452148
1692.249023	12362.278320
1693.083984	12079.968750
1693.918945	12234.730469
1694.753906	12272.747070
1695.588867	12155.019531
1696.422852	12145.100586
1697.257812	12317.956055
1698.091797	12415.947266
1698.925781	12172.272461
1699.759766	12294.254883
1700.593750	12041.480469
1701.426758	12094.506836
1702.260742	12156.548828
1703.093750	11918.620117
1703.926758	11947.647461
1704.760742	11973.683594
1705.592773	12029.742188
1706.425781	12118.840820
1707.258789	11958.765625
1708.090820	11843.679688
1708.923828	12176.071289
1709.755859	12030.943359
1710.587891	11795.629883
1711.419922	11914.827148
1712.251953	12166.305664
1713.083008	11732.497070
1713.915039	11743.506836
1714.746094	11925.921875
1715.577148	11879.824219
1716.408203	11963.056641
1717.239258	11871.820312
1718.070312	11699.307617
1718.901367	11975.164062
1719.731445	11862.811523
1720.561523	11786.546875
1721.392578	11773.489258
1722.222656	11877.881836
1723.052734	11837.725586
1723.881836	11782.491211
1724.711914	11874.883789
1725.541016	11641.830078
1726.371094	11839.725586
1727.200195	11781.438477
1728.029297	11861.830078
1728.858398	11722.101562
1729.686523	11754.250000
1730.515625	11928.196289
1731.344727	11743.147461
1732.172852	11989.576172
1733.000977	11701.852539
1733.829102	11788.360352
1734.657227	11729.971680
1735.485352	11780.275391
1736.312500	11872.879883
1737.140625	11729.890625
1737.967773	11469.020508
1738.794922	11513.268555
1739.622070	11675.403320
1740.449219	11571.579102
1741.276367	11615.866211
1742.102539	11645.047852
1742.929688	11822.434570
1743.755859	11827.460938
1744.582031	11775.004883
1745.408203	11522.817383
1746.234375	11627.667969
1747.060547	11735.579102
1747.885742	11689.125000
1748.711914	11636.599609
1749.537109	11641.596680
1750.362305	11595.101562
1751.187500	11763.687500
1752.012695	11692.957031
1752.837891	11588.865234
1753.663086	11484.737305
1754.487305	11356.321289
1755.311523	11661.452148
1756.135742	11657.358398
1756.959961	11647.197266
1757.784180	11682.537109
1758.608398	11347.721680
1759.432617	11492.268555
1760.255859	11542.774414
1761.079102	11587.225586
1761.903320	11428.264648
1762.726562	11700.464844
1763.548828	11353.160156
1764.372070	11525.192383
1765.195312	11800.583008
1766.017578	11477.428711
1766.840820	11591.821289
1767.663086	11456.989258
1768.485352	11480.207031
1769.307617	11649.391602
1770.128906	11517.541016
1770.951172	11486.026367
1771.772461	11557.940430
1772.594727	11386.448242
1773.416016	11717.057617
1774.237305	11594.236328
1775.058594	11587.060547
1775.879883	11610.331055
1776.700195	11499.610352
1777.521484	11254.828125
1778.341797	11537.003906
1779.162109	11505.434570
1779.982422	11345.859375
1780.802734	11475.791016
1781.623047	11383.222656
1782.442383	11574.185547
1783.262695	11466.354492
1784.082031	11437.788086
1784.901367	11467.172852
1785.720703	11331.808594
1786.540039	11556.488281
1787.359375	11643.897461
1788.178711	11270.385742
1788.997070	11537.912109
1789.815430	11509.321289
1790.634766	11474.612305
1791.453125	11415.453125
1792.271484	11487.648438
1793.088867	11437.637695
1793.907227	11427.340820
1794.724609	11264.202148
1795.542969	11412.850586
1796.360352	11497.334961
1797.177734	11569.614258
1797.995117	11427.799805
1798.812500	11365.479492
1799.628906	11419.412109
1800.446289	11173.446289
1801.262695	11487.540039
1802.079102	11541.520508
1802.896484	11359.749023
1803.711914	11572.971680
1804.528320	11244.122070
1805.344727	11095.905273
1806.160156	11318.381836
1806.976562	11602.222656
1807.791992	11251.699219
1808.607422	11278.119141
1809.422852	11203.367188
1810.238281	11235.918945
1811.053711	11394.232422
1811.868164	11475.908203
1812.682617	11269.208984
1813.498047	11363.165039
1814.312500	10975.294922
1815.126953	11511.265625
1815.941406	11276.798828
1816.754883	11315.544922
1817.569336	11246.811523
1818.382812	11141.193359
1819.196289	11269.030273
1820.010742	11187.961914
1820.824219	11278.969727
1821.636719	11170.209961
1822.450195	11036.819336
1823.263672	11213.941406
1824.076172	11105.115234
1824.888672	11051.617188
1825.702148	11185.760742
1826.514648	11190.718750
1827.326172	11198.755859
1828.138672	11169.859375
1828.951172	11171.738281
1829.762695	11013.509766
1830.574219	11098.507812
1831.386719	10894.012695
1832.198242	11046.790039
1833.009766	11033.241211
1833.820312	11183.011719
1834.631836	11114.002930
1835.442383	11088.126953
1836.253906	11302.726562
1837.064453	11156.610352
1837.875000	10961.099609
1838.685547	11098.666992
1839.496094	11220.854492
1840.305664	11111.653320
1841.116211	11095.002930
1841.925781	11096.866211
1842.735352	11169.737305
1843.544922	11202.491211
1844.354492	10978.926758
1845.164062	11051.813477
1845.973633	10877.577148
1846.782227	10885.583008
1847.591797	11069.743164
1848.400391	11121.055664
1849.208984	11150.746094
1850.017578	11001.113281
1850.826172	10968.942383
1851.633789	11128.525391
1852.442383	10851.978516
1853.250000	10782.637695
1854.058594	10954.646484
1854.866211	10959.580078
1855.673828	10645.670898
1856.481445	10923.008789
1857.288086	11175.666992
1858.095703	11131.084961
1858.902344	10804.601562
1859.709961	10747.548828
1860.516602	10696.673828
1861.323242	10813.138672
1862.129883	10793.253906
1862.935547	11080.287109
1863.742188	10706.952148
1864.547852	10832.798828
1865.354492	10735.357422
1866.160156	10917.092773
1866.965820	10940.642578
1867.771484	10892.823242
1868.577148	10807.740234
1869.381836	10818.865234
1870.187500	10758.580078
1870.992188	10847.334961
1871.796875	10777.715820
1872.602539	10869.610352
1873.406250	10796.863281
1874.210938	10630.866211
1875.015625	10955.884766
1875.819336	10827.160156
1876.624023	10897.374023
1877.427734	10749.937500
1878.231445	10991.218750
1879.035156	10657.108398
1879.838867	11001.123047
1880.642578	10623.338867
1881.445312	10737.157227
1882.249023	10910.156250
1883.051758	10955.568359
1883.854492	10714.527344
1884.657227	10903.179688
1885.459961	10665.163086
1886.262695	10863.215820
1887.064453	10893.077148
1887.867188	10757.779297
1888.668945	10868.671875
1889.470703	10630.448242
1890.272461	10597.929688
1891.074219	10861.655273
1891.875977	10797.973633
1892.677734	10703.075195
1893.478516	10761.026367
1894.280273	10541.266602
1895.081055	10580.483398
1895.881836	10750.819336
1896.682617	10780.716797
1897.483398	10782.520508
1898.283203	10675.012695
1899.083984	10711.158203
1899.883789	10794.178711
1900.684570	10627.248047
1901.484375	10604.022461
1902.284180	10452.631836
1903.083984	10660.715820
1903.882812	10706.273438
1904.682617	10592.351562
1905.481445	10544.076172
1906.281250	10633.433594
1907.080078	10844.848633
1907.878906	10871.696289
1908.677734	10588.685547
1909.476562	10696.891602
1910.274414	10460.721680
1911.073242	10478.126953
1911.871094	10605.160156
1912.668945	10663.318359
1913.466797	10599.304688
1914.264648	10673.148438
1915.062500	10765.821289
1915.860352	10695.522461
1916.657227	10609.522461
1917.455078	10548.580078
1918.251953	10597.384766
1919.048828	10658.752930
1919.845703	10701.317383
1920.642578	10583.867188
1921.439453	10303.182617
1922.235352	10314.319336
1923.032227	10385.107422
1923.828125	10575.236328
1924.624023	10542.456055
1925.419922	10585.047852
1926.215820	10360.626953
1927.011719	10582.296875
1927.806641	10489.787109
1928.602539	10438.104492
1929.397461	10628.461914
1930.192383	10435.299805
1930.988281	10389.871094
1931.783203	10699.830078
1932.577148	10534.893555
1933.372070	10410.801758
1934.166992	10377.923828
1934.960938	10483.514648
1935.754883	10567.104492
1936.548828	10304.409180
1937.342773	10517.098633
1938.136719	10361.384766
1938.930664	10508.005859
1939.724609	10304.981445
1940.517578	10451.642578
1941.310547	10478.595703
1942.104492	10281.767578
1942.897461	10267.718750
1943.689453	10433.387695
1944.482422	10144.998047
1945.275391	10373.783203
1946.067383	10179.925781
1946.860352	10658.046875
1947.652344	10385.280273
1948.444336	10112.421875
1949.236328	10360.330078
1950.028320	10308.382812
1950.820312	10423.779297
1951.611328	10352.875000
1952.403320	10468.316406
1953.194336	10280.499023
1953.985352	10152.656250
1954.776367	10271.281250
1955.567383	10295.118164
1956.358398	10059.723633
1957.148438	10377.595703
1957.939453	10265.472656
1958.729492	10482.267578
1959.519531	10303.689453
1960.310547	10280.091797
1961.099609	10069.774414
1961.889648	10188.559570
1962.679688	10266.230469
1963.469727	10315.431641
1964.258789	10301.314453
1965.047852	10220.680664
1965.836914	10288.903320
1966.625977	10246.258789
1967.415039	10479.287109
1968.204102	10046.830078
1968.993164	10045.331055
1969.781250	10129.431641
1970.569336	10327.713867
1971.358398	10231.116211
1972.146484	10191.582031
1972.934570	10066.375977
1973.721680	10185.452148
1974.509766	10161.756836
1975.297852	10265.016602
1976.084961	10177.833984
1976.872070	10154.125000
1977.659180	10308.245117
1978.446289	10360.777344
1979.233398	10229.076172
1980.020508	10173.584961
1980.807617	10254.720703
1981.593750	10081.617188
1982.379883	10102.365234
1983.166016	10263.011719
1983.953125	10007.145508
1984.738281	10209.174805
1985.524414	10096.355469
1986.310547	10113.940430
1987.095703	9899.243164
1987.881836	10123.665039
1988.666992	10068.050781
1989.452148	10142.945312
1990.237305	10240.153320
1991.022461	10197.268555
1991.807617	10109.776367
1992.591797	10054.112305
1993.376953	10090.830078
1994.161133	10089.318359
1994.945312	10008.123047
1995.729492	9898.209961
1996.513672	10062.458984
1997.297852	10115.151367
1998.082031	10155.102539
1998.865234	10271.625977
1999.649414	10049.996094
2000.432617	10000.607422
2001.215820	10248.014648
2001.999023	10058.191406
2002.782227	10098.170898
2003.565430	10061.528320
2004.347656	9893.933594
2005.130859	9726.283203
2005.913086	10258.217773
2006.695312	9975.542969
2007.477539	10073.070312
2008.259766	9950.084961
2009.041992	10070.016602
2009.824219	10113.251953
2010.605469	9955.034180
2011.387695	9892.715820
2012.168945	9929.543945
2012.950195	10139.156250
2013.731445	9862.435547
2014.512695	9937.682617
2015.293945	9843.297852
2016.074219	10008.209961
2016.855469	9936.219727
2017.635742	9969.892578
2018.416016	9990.763672
2019.196289	9973.196289
2019.976562	9984.460938
2020.756836	9723.322266
2021.537109	9869.172852
2022.316406	9803.484375
2023.096680	9814.726562
2023.875977	9720.144531
2024.655273	9955.897461
2025.434570	9813.187500
2026.213867	9763.476562
2026.993164	9761.883789
2027.771484	9821.272461
2028.550781	9729.805664
2029.329102	10039.636719
2030.107422	9970.652344
2030.885742	10004.419922
2031.664062	9874.374023
2032.442383	9753.923828
2033.220703	9678.418945
2033.998047	9609.316406
2034.776367	9800.553711
2035.553711	9943.629883
2036.331055	9897.043945
2037.108398	9824.713867
2037.885742	9829.555664
2038.663086	9892.304688
2039.440430	9871.418945
2040.216797	9744.328125
2040.994141	9662.255859
2041.770508	9828.030273
2042.546875	9768.481445
2043.323242	9602.646484
2044.099609	9742.725586
2044.875000	9924.727539
2045.651367	9678.289062
2046.426758	9750.780273
2047.203125	9791.067383
2047.978516	9715.324219
2048.753906	9803.975586
2049.529297	9802.372070
2050.304688	9765.291992
2051.079102	9866.896484
2051.854492	9636.250977
2052.628906	9479.739258
2053.404297	9600.709961
2054.178711	9795.956055
2054.953125	9684.586914
2055.727539	9741.075195
2056.500977	9532.782227
2057.275391	9618.332031
2058.049805	9558.543945
2058.823242	9563.353516
2059.596680	9755.584961
2060.370117	9563.280273
2061.143555	9645.670898
2061.916992	9582.603516
2062.690430	9645.623047
2063.462891	9563.129883
2064.236328	9574.412109
2065.008789	9524.230469
2065.781250	9357.547852
2066.553711	9656.823242
2067.326172	9532.183594
2068.098633	9582.316406
2068.871094	9341.062500
2069.642578	9442.992188
2070.415039	9606.494141
2071.186523	9520.615234
2071.958008	9288.910156
2072.729492	9575.604492
2073.500977	9379.482422
2074.272461	9439.376953
2075.042969	9570.617188
2075.814453	9461.947266
2076.584961	9298.106445
2077.355469	9465.068359
2078.125977	9346.592773
2078.896484	9630.427734
2079.666992	9288.014648
2080.437500	9396.658203
2081.207031	9362.498047
2081.977539	9464.694336
2082.747070	9222.697266
2083.516602	9519.782227
2084.286133	9329.690430
2085.055664	9344.223633
2085.825195	9157.289062
2086.594727	9305.052734
2087.363281	9192.813477
2088.132812	9301.617188
2088.901367	9244.619141
2089.669922	9320.943359
2090.438477	9488.371094
2091.207031	9278.468750
2091.975586	9354.835938
2092.744141	9161.113281
2093.511719	9383.957031
2094.279297	9421.312500
2095.047852	9103.776367
2095.815430	9242.049805
2096.583008	9230.542969
2097.350586	9153.880859
2098.117188	9419.297852
2098.884766	9518.608398
2099.651367	9102.996094
2100.418945	9303.338867
2101.185547	9435.282227
2101.952148	9427.052734
2102.718750	9073.115234
2103.485352	9263.798828
2104.250977	9222.912109
2105.017578	9198.326172
2105.783203	9150.886719
2106.549805	9250.313477
2107.315430	9163.691406
2108.081055	9210.911133
2108.846680	9150.378906
2109.612305	9194.344727
2110.376953	9169.722656
2111.142578	9252.913086
2111.907227	9140.061523
2112.672852	9144.833008
2113.437500	9143.068359
2114.202148	9317.850586
2114.966797	9234.364258
2115.730469	9010.217773
2116.495117	9345.344727
2117.258789	8996.823242
2118.023438	9011.390625
2118.787109	9114.323242
2119.550781	9079.816406
2120.314453	8956.907227
2121.078125	9040.236328
2121.841797	8986.049805
2122.604492	8915.469727
2123.368164	8776.071289
2124.130859	9206.723633
2124.893555	9014.896484
2125.656250	9003.267578
2126.418945	9030.970703
2127.181641	9052.125977
2127.944336	9079.845703
2128.707031	9133.810547
2129.468750	9089.388672
2130.230469	9041.670898
2130.992188	8911.905273
2131.754883	9087.303711
2132.515625	8960.784180
2133.277344	9054.176758
2134.039062	9088.497070
2134.799805	9027.593750
2135.561523	9121.041992
2136.322266	9089.688477
2137.083008	8854.619141
2137.843750	9125.534180
2138.604492	8962.699219
2139.365234	8878.703125
2140.125977	8929.475586
2140.885742	8973.688477
2141.646484	9146.179688
2142.406250	9025.973633
2143.166016	8757.683594
2143.925781	8867.705078
2144.685547	8661.828125
2145.445312	8943.027344
2146.204102	8855.609375
2146.963867	8847.183594
2147.722656	8680.685547
2148.481445	8741.394531
2149.241211	8844.948242
2150.000000	8787.093750
2150.757812	8755.581055
2151.516602	8813.045898
2152.275391	8620.004883
2153.033203	8766.482422
2153.791992	8988.848633
2154.549805	8535.199219
2155.307617	8767.495117
2156.065430	8795.325195
2156.823242	8710.976562
2157.581055	8709.103516
2158.337891	8730.334961
2159.095703	8636.029297
2159.852539	8733.196289
2160.609375	8817.184570
2161.366211	8650.183594
2162.123047	8588.835938
2162.879883	8676.145508
2163.636719	8621.390625
2164.392578	8566.617188
2165.149414	8369.686523
2165.905273	8509.913086
2166.661133	8455.093750
2167.416992	8330.805664
2168.172852	8507.479492
2168.928711	8489.022461
2169.684570	8510.264648
2170.439453	8432.233398
2171.195312	8506.431641
2171.950195	8411.821289
2172.705078	8525.771484
2173.459961	8467.559570
2174.214844	8402.704102
2174.969727	8606.148438
2175.724609	8478.343750
2176.478516	8443.280273
2177.233398	8467.861328
2177.987305	8386.377930
2178.741211	8318.127930
2179.495117	8306.225586
2180.249023	8284.369141
2181.002930	8242.604492
2181.756836	8220.730469
2182.509766	8119.215820
2183.263672	8176.959473
2184.016602	8490.292969
2184.769531	8279.223633
2185.522461	8340.340820
2186.275391	8358.308594
2187.028320	8236.787109
2187.780273	8161.731934
2188.533203	8156.421387
2189.285156	8250.796875
2190.038086	8145.794434
2190.790039	8230.225586
2191.541992	8075.317383
2192.293945	8116.538086
2193.045898	8094.585449
2193.796875	8129.169922
2194.548828	8333.427734
2195.299805	7942.172363
2196.050781	8010.026367
2196.802734	8031.305176
2197.553711	7916.105957
2198.304688	8200.401367
2199.054688	8018.591309
2199.805664	7959.951660
2200.555664	8094.494629
2201.306641	8122.469238
2202.056641	8247.085938
2202.806641	8041.804688
2203.556641	7953.120117
2204.306641	8044.431152
2205.056641	8042.410156
2205.806641	8050.393066
2206.555664	7884.936035
2207.305664	7972.958008
2208.054688	8167.777344
2208.803711	7842.079102
2209.552734	7913.448242
2210.301758	8131.719238
2211.050781	7895.999512
2211.798828	7927.340820
2212.547852	8025.487793
2213.295898	7863.121582
2214.043945	8004.720703
2214.792969	7862.345703
2215.541016	7957.203125
2216.288086	7898.336426
2217.036133	8030.003418
2217.784180	7937.692383
2218.531250	7765.091797
2219.279297	7950.315918
2220.026367	7867.981445
2220.773438	8096.777344
2221.520508	7783.543457
2222.267578	7791.505859
2223.014648	7980.231445
2223.761719	7857.657715
2224.507812	8006.272949
2225.253906	7866.917969
2226.000977	7817.956055
2226.747070	8043.689941
2227.493164	8038.299316
2228.239258	7825.130371
2228.985352	7839.812988
2229.730469	8069.048340
2230.476562	7986.541504
2231.221680	7806.757812
2231.966797	7871.755371
2232.712891	7775.756836
2233.458008	7877.675293
2234.203125	7771.579102
2234.947266	7870.173340
2235.692383	7743.900391
2236.436523	7993.597656
2237.181641	7645.689453
2237.925781	7804.776367
2238.669922	7863.147949
2239.414062	7777.083008
2240.158203	7650.670410
2240.902344	7645.194824
2241.646484	7804.409668
2242.389648	7741.809570
2243.133789	7648.928711
2243.876953	7821.672363
2244.620117	7644.692383
2245.363281	7662.755859
2246.106445	7717.832520
2246.849609	7517.193848
2247.592773	7881.885742
2248.334961	7782.188477
2249.078125	7716.123535
2249.820312	7508.619141
2250.562500	7651.281738
2251.304688	7642.421875
2252.046875	7845.789062
2252.789062	7597.737793
2253.530273	7423.742188
2254.272461	7711.432129
2255.013672	7483.462891
2255.755859	7663.368164
2256.497070	7553.337402
2257.238281	7530.957520
2257.979492	7508.570312
2258.720703	7654.858398
2259.460938	7743.832520
2260.202148	7707.969238
2260.942383	7570.833984
2261.683594	7389.768066
2262.423828	7563.166016
2263.164062	7679.211914
2263.904297	7427.146484
2264.644531	7485.780273
2265.384766	7551.190430
2266.124023	7478.075684
2266.864258	7590.820801
2267.603516	7571.772949
2268.342773	7657.522949
2269.082031	7513.368652
2269.821289	7558.553711
2270.560547	7492.132324
2271.299805	7655.733398
2272.038086	7362.607422
2272.777344	7590.538086
2273.515625	7483.461914
2274.253906	7562.536621
2274.993164	7397.862793
2275.731445	7575.151367
2276.468750	7532.352051
2277.207031	7374.367188
2277.945312	7436.547363
2278.682617	7505.524414
2279.420898	7469.462891
2280.158203	7538.467285
2280.895508	7465.107422
2281.632812	7371.379395
2282.370117	7297.967773
2283.107422	7584.063477
2283.843750	7405.499512
2284.581055	7518.666504
2285.317383	7574.181641
2286.054688	7276.738281
2286.791016	7386.543945
2287.527344	7357.186523
2288.263672	7263.301270
2288.999023	7247.498535
2289.735352	7408.321289
2290.471680	7219.273438
2291.207031	7322.379883
2291.942383	7371.145020
2292.677734	7396.132812
2293.414062	7257.952148
2294.148438	7364.530762
2294.883789	7256.904785
2295.619141	7322.703125
2296.354492	7283.069824
2297.088867	7396.524902
2297.823242	7438.557617
2298.557617	7446.569824
2299.292969	7148.231445
2300.026367	7496.645996
2300.760742	7239.079102
